20230424_F3_PCT-C3-SO3Na 2 mgml_H2SO4 0p01 N-2 - RawData
Wavelength nm.,Abs.
200.00,0.664
201.00,0.681
202.00,0.674
203.00,0.663
204.00,0.659
205.00,0.645
206.00,0.636
207.00,0.634
208.00,0.611
209.00,0.586
210.00,0.571
211.00,0.547
212.00,0.513
213.00,0.478
214.00,0.448
215.00,0.421
216.00,0.395
217.00,0.367
218.00,0.339
219.00,0.317
220.00,0.298
221.00,0.278
222.00,0.261
223.00,0.248
224.00,0.238
225.00,0.230
226.00,0.222
227.00,0.214
228.00,0.208
229.00,0.201
230.00,0.195
231.00,0.190
232.00,0.185
233.00,0.180
234.00,0.175
235.00,0.171
236.00,0.166
237.00,0.162
238.00,0.156
239.00,0.152
240.00,0.148
241.00,0.143
242.00,0.141
243.00,0.138
244.00,0.134
245.00,0.132
246.00,0.131
247.00,0.130
248.00,0.128
249.00,0.127
250.00,0.125
251.00,0.124
252.00,0.124
253.00,0.123
254.00,0.122
255.00,0.122
256.00,0.121
257.00,0.120
258.00,0.119
259.00,0.118
260.00,0.118
261.00,0.119
262.00,0.118
263.00,0.117
264.00,0.116
265.00,0.115
266.00,0.116
267.00,0.116
268.00,0.115
269.00,0.115
270.00,0.114
271.00,0.114
272.00,0.115
273.00,0.114
274.00,0.113
275.00,0.113
276.00,0.112
277.00,0.110
278.00,0.109
279.00,0.108
280.00,0.107
281.00,0.106
282.00,0.104
283.00,0.102
284.00,0.100
285.00,0.099
286.00,0.098
287.00,0.096
288.00,0.093
289.00,0.091
290.00,0.089
291.00,0.087
292.00,0.085
293.00,0.084
294.00,0.083
295.00,0.081
296.00,0.080
297.00,0.079
298.00,0.077
299.00,0.076
300.00,0.074
301.00,0.071
302.00,0.069
303.00,0.069
304.00,0.069
305.00,0.068
306.00,0.066
307.00,0.065
308.00,0.064
309.00,0.063
310.00,0.063
311.00,0.061
312.00,0.060
313.00,0.059
314.00,0.058
315.00,0.056
316.00,0.057
317.00,0.059
318.00,0.057
319.00,0.055
320.00,0.055
321.00,0.055
322.00,0.054
323.00,0.054
324.00,0.054
325.00,0.054
326.00,0.053
327.00,0.053
328.00,0.053
329.00,0.053
330.00,0.053
331.00,0.053
332.00,0.052
333.00,0.051
334.00,0.051
335.00,0.053
336.00,0.053
337.00,0.053
338.00,0.052
339.00,0.052
340.00,0.053
341.00,0.053
342.00,0.053
343.00,0.053
344.00,0.053
345.00,0.053
346.00,0.055
347.00,0.055
348.00,0.055
349.00,0.055
350.00,0.055
351.00,0.055
352.00,0.054
353.00,0.054
354.00,0.054
355.00,0.054
356.00,0.055
357.00,0.057
358.00,0.060
359.00,0.062
360.00,0.059
361.00,0.060
362.00,0.060
363.00,0.065
364.00,0.068
365.00,0.064
366.00,0.060
367.00,0.058
368.00,0.061
369.00,0.064
370.00,0.064
371.00,0.068
372.00,0.069
373.00,0.065
374.00,0.066
375.00,0.066
376.00,0.067
377.00,0.066
378.00,0.061
379.00,0.062
380.00,0.066
381.00,0.067
382.00,0.070
383.00,0.073
384.00,0.073
385.00,0.072
386.00,0.072
387.00,0.074
388.00,0.076
389.00,0.075
390.00,0.076
391.00,0.078
392.00,0.077
393.00,0.079
394.00,0.079
395.00,0.078
396.00,0.080
397.00,0.080
398.00,0.080
399.00,0.081
400.00,0.083
401.00,0.084
402.00,0.083
403.00,0.085
404.00,0.089
405.00,0.089
406.00,0.089
407.00,0.091
408.00,0.091
409.00,0.090
410.00,0.091
411.00,0.092
412.00,0.092
413.00,0.093
414.00,0.095
415.00,0.096
416.00,0.095
417.00,0.096
418.00,0.098
419.00,0.099
420.00,0.099
421.00,0.100
422.00,0.101
423.00,0.103
424.00,0.104
425.00,0.105
426.00,0.107
427.00,0.107
428.00,0.109
429.00,0.110
430.00,0.109
431.00,0.108
432.00,0.111
433.00,0.112
434.00,0.113
435.00,0.114
436.00,0.115
437.00,0.116
438.00,0.116
439.00,0.117
440.00,0.119
441.00,0.119
442.00,0.120
443.00,0.121
444.00,0.122
445.00,0.123
446.00,0.125
447.00,0.127
448.00,0.128
449.00,0.130
450.00,0.130
451.00,0.131
452.00,0.132
453.00,0.133
454.00,0.135
455.00,0.136
456.00,0.136
457.00,0.137
458.00,0.138
459.00,0.140
460.00,0.141
461.00,0.143
462.00,0.143
463.00,0.143
464.00,0.145
465.00,0.146
466.00,0.148
467.00,0.149
468.00,0.150
469.00,0.152
470.00,0.152
471.00,0.154
472.00,0.155
473.00,0.157
474.00,0.158
475.00,0.159
476.00,0.161
477.00,0.163
478.00,0.164
479.00,0.165
480.00,0.165
481.00,0.166
482.00,0.168
483.00,0.169
484.00,0.171
485.00,0.173
486.00,0.175
487.00,0.176
488.00,0.178
489.00,0.179
490.00,0.180
491.00,0.182
492.00,0.184
493.00,0.185
494.00,0.186
495.00,0.188
496.00,0.190
497.00,0.191
498.00,0.193
499.00,0.194
500.00,0.196
501.00,0.198
502.00,0.199
503.00,0.200
504.00,0.202
505.00,0.204
506.00,0.206
507.00,0.208
508.00,0.209
509.00,0.211
510.00,0.213
511.00,0.214
512.00,0.216
513.00,0.218
514.00,0.220
515.00,0.221
516.00,0.223
517.00,0.225
518.00,0.226
519.00,0.228
520.00,0.230
521.00,0.231
522.00,0.233
523.00,0.235
524.00,0.237
525.00,0.239
526.00,0.241
527.00,0.243
528.00,0.245
529.00,0.247
530.00,0.249
531.00,0.251
532.00,0.253
533.00,0.254
534.00,0.256
535.00,0.258
536.00,0.260
537.00,0.262
538.00,0.264
539.00,0.266
540.00,0.267
541.00,0.269
542.00,0.271
543.00,0.272
544.00,0.274
545.00,0.276
546.00,0.278
547.00,0.281
548.00,0.283
549.00,0.283
550.00,0.285
551.00,0.287
552.00,0.289
553.00,0.291
554.00,0.293
555.00,0.294
556.00,0.296
557.00,0.297
558.00,0.299
559.00,0.301
560.00,0.303
561.00,0.304
562.00,0.306
563.00,0.307
564.00,0.309
565.00,0.311
566.00,0.313
567.00,0.314
568.00,0.315
569.00,0.317
570.00,0.319
571.00,0.320
572.00,0.321
573.00,0.324
574.00,0.325
575.00,0.326
576.00,0.328
577.00,0.330
578.00,0.331
579.00,0.333
580.00,0.334
581.00,0.335
582.00,0.336
583.00,0.338
584.00,0.339
585.00,0.340
586.00,0.342
587.00,0.343
588.00,0.344
589.00,0.345
590.00,0.346
591.00,0.346
592.00,0.347
593.00,0.348
594.00,0.349
595.00,0.349
596.00,0.350
597.00,0.351
598.00,0.351
599.00,0.351
600.00,0.351
601.00,0.352
602.00,0.352
603.00,0.351
604.00,0.351
605.00,0.351
606.00,0.351
607.00,0.350
608.00,0.350
609.00,0.349
610.00,0.349
611.00,0.349
612.00,0.348
613.00,0.348
614.00,0.347
615.00,0.347
616.00,0.346
617.00,0.346
618.00,0.346
619.00,0.345
620.00,0.344
621.00,0.343
622.00,0.342
623.00,0.341
624.00,0.341
625.00,0.340
626.00,0.339
627.00,0.338
628.00,0.337
629.00,0.336
630.00,0.336
631.00,0.335
632.00,0.334
633.00,0.333
634.00,0.334
635.00,0.333
636.00,0.332
637.00,0.331
638.00,0.330
639.00,0.330
640.00,0.329
641.00,0.328
642.00,0.327
643.00,0.327
644.00,0.326
645.00,0.324
646.00,0.323
647.00,0.321
648.00,0.319
649.00,0.317
650.00,0.315
651.00,0.313
652.00,0.310
653.00,0.308
654.00,0.306
655.00,0.303
656.00,0.301
657.00,0.298
658.00,0.295
659.00,0.292
660.00,0.289
661.00,0.285
662.00,0.281
663.00,0.278
664.00,0.274
665.00,0.270
666.00,0.266
667.00,0.261
668.00,0.256
669.00,0.252
670.00,0.248
671.00,0.242
672.00,0.238
673.00,0.234
674.00,0.230
675.00,0.226
676.00,0.221
677.00,0.217
678.00,0.212
679.00,0.208
680.00,0.205
681.00,0.200
682.00,0.196
683.00,0.192
684.00,0.189
685.00,0.185
686.00,0.182
687.00,0.178
688.00,0.174
689.00,0.170
690.00,0.167
691.00,0.165
692.00,0.162
693.00,0.159
694.00,0.157
695.00,0.154
696.00,0.152
697.00,0.150
698.00,0.148
699.00,0.146
700.00,0.145
701.00,0.144
702.00,0.142
703.00,0.140
704.00,0.139
705.00,0.138
706.00,0.136
707.00,0.134
708.00,0.133
709.00,0.132
710.00,0.131
711.00,0.131
712.00,0.130
713.00,0.130
714.00,0.129
715.00,0.128
716.00,0.127
717.00,0.126
718.00,0.126
719.00,0.125
720.00,0.125
721.00,0.125
722.00,0.124
723.00,0.124
724.00,0.123
725.00,0.123
726.00,0.122
727.00,0.122
728.00,0.123
729.00,0.123
730.00,0.122
731.00,0.122
732.00,0.122
733.00,0.122
734.00,0.122
735.00,0.121
736.00,0.121
737.00,0.120
738.00,0.120
739.00,0.120
740.00,0.120
741.00,0.121
742.00,0.122
743.00,0.121
744.00,0.121
745.00,0.120
746.00,0.120
747.00,0.120
748.00,0.121
749.00,0.121
750.00,0.121
751.00,0.121
752.00,0.121
753.00,0.122
754.00,0.121
755.00,0.122
756.00,0.123
757.00,0.122
758.00,0.122
759.00,0.122
760.00,0.122
761.00,0.122
762.00,0.123
763.00,0.123
764.00,0.123
765.00,0.123
766.00,0.123
767.00,0.122
768.00,0.122
769.00,0.123
770.00,0.124
771.00,0.123
772.00,0.124
773.00,0.125
774.00,0.125
775.00,0.124
776.00,0.125
777.00,0.125
778.00,0.124
779.00,0.124
780.00,0.125
781.00,0.126
782.00,0.126
783.00,0.126
784.00,0.128
785.00,0.128
786.00,0.127
787.00,0.127
788.00,0.126
789.00,0.126
790.00,0.127
791.00,0.128
792.00,0.128
793.00,0.128
794.00,0.127
795.00,0.128
796.00,0.130
797.00,0.129
798.00,0.130
799.00,0.131
800.00,0.131
801.00,0.130
802.00,0.131
803.00,0.132
804.00,0.132
805.00,0.132
806.00,0.133
807.00,0.133
808.00,0.132
809.00,0.132
810.00,0.134
811.00,0.133
812.00,0.133
813.00,0.134
814.00,0.133
815.00,0.133
816.00,0.133
817.00,0.134
818.00,0.135
819.00,0.134
820.00,0.134
821.00,0.136
822.00,0.136
823.00,0.136
824.00,0.137
825.00,0.137
826.00,0.135
827.00,0.136
828.00,0.138
829.00,0.139
830.00,0.138
831.00,0.137
832.00,0.138
833.00,0.139
834.00,0.139
835.00,0.140
836.00,0.141
837.00,0.139
838.00,0.141
839.00,0.141
840.00,0.140
841.00,0.141
842.00,0.143
843.00,0.143
844.00,0.144
845.00,0.143
846.00,0.143
847.00,0.145
848.00,0.146
849.00,0.144
850.00,0.144
851.00,0.146
852.00,0.146
853.00,0.146
854.00,0.147
855.00,0.146
856.00,0.147
857.00,0.147
858.00,0.146
859.00,0.146
860.00,0.145
861.00,0.148
862.00,0.149
863.00,0.149
864.00,0.149
865.00,0.148
866.00,0.150
867.00,0.150
868.00,0.150
869.00,0.151
870.00,0.151
871.00,0.151
872.00,0.151
873.00,0.152
874.00,0.152
875.00,0.152
876.00,0.152
877.00,0.151
878.00,0.150
879.00,0.153
880.00,0.168
881.00,0.177
882.00,0.175
883.00,0.177
884.00,0.179
885.00,0.177
886.00,0.176
887.00,0.175
888.00,0.175
889.00,0.174
890.00,0.175
891.00,0.176
892.00,0.176
893.00,0.175
894.00,0.175
895.00,0.172
896.00,0.170
897.00,0.171
898.00,0.172
899.00,0.174
900.00,0.177
901.00,0.179
902.00,0.177
903.00,0.177
904.00,0.178
905.00,0.178
906.00,0.175
907.00,0.175
908.00,0.178
909.00,0.179
910.00,0.178
911.00,0.177
912.00,0.178
913.00,0.176
914.00,0.173
915.00,0.175
916.00,0.176
917.00,0.176
918.00,0.175
919.00,0.174
920.00,0.176
921.00,0.176
922.00,0.177
923.00,0.176
924.00,0.174
925.00,0.176
926.00,0.177
927.00,0.178
928.00,0.176
929.00,0.174
930.00,0.175
931.00,0.176
932.00,0.177
933.00,0.176
934.00,0.175
935.00,0.174
936.00,0.174
937.00,0.175
938.00,0.174
939.00,0.173
940.00,0.174
941.00,0.174
942.00,0.174
943.00,0.173
944.00,0.173
945.00,0.173
946.00,0.172
947.00,0.173
948.00,0.173
949.00,0.173
950.00,0.173
951.00,0.173
952.00,0.173
953.00,0.172
954.00,0.173
955.00,0.175
956.00,0.176
957.00,0.175
958.00,0.173
959.00,0.175
960.00,0.175
961.00,0.175
962.00,0.176
963.00,0.174
964.00,0.173
965.00,0.173
966.00,0.173
967.00,0.172
968.00,0.172
969.00,0.173
970.00,0.173
971.00,0.173
972.00,0.172
973.00,0.173
974.00,0.173
975.00,0.174
976.00,0.174
977.00,0.172
978.00,0.172
979.00,0.173
980.00,0.173
981.00,0.173
982.00,0.172
983.00,0.172
984.00,0.171
985.00,0.171
986.00,0.171
987.00,0.171
988.00,0.173
989.00,0.173
990.00,0.173
991.00,0.172
992.00,0.172
993.00,0.172
994.00,0.172
995.00,0.171
996.00,0.170
997.00,0.171
998.00,0.171
999.00,0.170
1000.00,0.170
1001.00,0.169
1002.00,0.169
1003.00,0.170
1004.00,0.169
1005.00,0.169
1006.00,0.170
1007.00,0.169
1008.00,0.169
1009.00,0.168
1010.00,0.166
1011.00,0.167
1012.00,0.168
1013.00,0.167
1014.00,0.167
1015.00,0.166
1016.00,0.166
1017.00,0.167
1018.00,0.166
1019.00,0.165
1020.00,0.164
1021.00,0.164
1022.00,0.164
1023.00,0.163
1024.00,0.163
1025.00,0.163
1026.00,0.164
1027.00,0.163
1028.00,0.162
1029.00,0.162
1030.00,0.162
1031.00,0.161
1032.00,0.160
1033.00,0.160
1034.00,0.159
1035.00,0.160
1036.00,0.160
1037.00,0.159
1038.00,0.157
1039.00,0.156
1040.00,0.156
1041.00,0.156
1042.00,0.155
1043.00,0.155
1044.00,0.155
1045.00,0.154
1046.00,0.154
1047.00,0.155
1048.00,0.153
1049.00,0.152
1050.00,0.153
1051.00,0.151
1052.00,0.150
1053.00,0.150
1054.00,0.150
1055.00,0.150
1056.00,0.150
1057.00,0.149
1058.00,0.149
1059.00,0.149
1060.00,0.148
1061.00,0.147
1062.00,0.146
1063.00,0.145
1064.00,0.146
1065.00,0.145
1066.00,0.144
1067.00,0.144
1068.00,0.144
1069.00,0.143
1070.00,0.142
1071.00,0.142
1072.00,0.141
1073.00,0.141
1074.00,0.141
1075.00,0.141
1076.00,0.140
1077.00,0.139
1078.00,0.139
1079.00,0.137
1080.00,0.136
1081.00,0.135
1082.00,0.135
1083.00,0.135
1084.00,0.135
1085.00,0.135
1086.00,0.135
1087.00,0.133
1088.00,0.132
1089.00,0.131
1090.00,0.130
1091.00,0.130
1092.00,0.129
1093.00,0.129
1094.00,0.128
1095.00,0.127
1096.00,0.127
1097.00,0.126
1098.00,0.125
1099.00,0.124
1100.00,0.124
1101.00,0.124
1102.00,0.124
1103.00,0.123
1104.00,0.122
1105.00,0.122
1106.00,0.121
1107.00,0.120
1108.00,0.119
1109.00,0.118
1110.00,0.117
1111.00,0.116
1112.00,0.117
1113.00,0.116
1114.00,0.115
1115.00,0.115
1116.00,0.115
1117.00,0.115
1118.00,0.114
1119.00,0.112
1120.00,0.112
1121.00,0.112
1122.00,0.111
1123.00,0.110
1124.00,0.109
1125.00,0.109
1126.00,0.108
1127.00,0.107
1128.00,0.107
1129.00,0.105
1130.00,0.105
1131.00,0.106
1132.00,0.106
1133.00,0.105
1134.00,0.104
1135.00,0.103
1136.00,0.103
1137.00,0.102
1138.00,0.102
1139.00,0.101
1140.00,0.102
1141.00,0.102
1142.00,0.101
1143.00,0.100
1144.00,0.100
1145.00,0.099
1146.00,0.097
1147.00,0.097
1148.00,0.097
1149.00,0.098
1150.00,0.098
1151.00,0.097
1152.00,0.097
1153.00,0.097
1154.00,0.096
1155.00,0.095
1156.00,0.095
1157.00,0.094
1158.00,0.093
1159.00,0.094
1160.00,0.093
1161.00,0.093
1162.00,0.092
1163.00,0.091
1164.00,0.091
1165.00,0.091
1166.00,0.090
1167.00,0.090
1168.00,0.090
1169.00,0.089
1170.00,0.089
1171.00,0.089
1172.00,0.089
1173.00,0.089
1174.00,0.088
1175.00,0.087
1176.00,0.087
1177.00,0.086
1178.00,0.087
1179.00,0.088
1180.00,0.087
1181.00,0.086
1182.00,0.085
1183.00,0.085
1184.00,0.084
1185.00,0.084
1186.00,0.084
1187.00,0.084
1188.00,0.083
1189.00,0.083
1190.00,0.083
1191.00,0.082
1192.00,0.082
1193.00,0.081
1194.00,0.081
1195.00,0.081
1196.00,0.080
1197.00,0.080
1198.00,0.081
1199.00,0.081
1200.00,0.079
1201.00,0.078
1202.00,0.078
1203.00,0.077
1204.00,0.079
1205.00,0.079
1206.00,0.079
1207.00,0.078
1208.00,0.077
1209.00,0.077
1210.00,0.077
1211.00,0.077
1212.00,0.077
1213.00,0.076
1214.00,0.077
1215.00,0.076
1216.00,0.077
1217.00,0.077
1218.00,0.076
1219.00,0.075
1220.00,0.075
1221.00,0.076
1222.00,0.075
1223.00,0.075
1224.00,0.075
1225.00,0.076
1226.00,0.076
1227.00,0.076
1228.00,0.076
1229.00,0.076
1230.00,0.075
1231.00,0.075
1232.00,0.074
1233.00,0.074
1234.00,0.074
1235.00,0.075
1236.00,0.075
1237.00,0.075
1238.00,0.075
1239.00,0.074
1240.00,0.074
1241.00,0.074
1242.00,0.075
1243.00,0.075
1244.00,0.075
1245.00,0.075
1246.00,0.075
1247.00,0.074
1248.00,0.074
1249.00,0.073
1250.00,0.073
1251.00,0.072
1252.00,0.073
1253.00,0.074
1254.00,0.073
1255.00,0.073
1256.00,0.073
1257.00,0.074
1258.00,0.073
1259.00,0.073
1260.00,0.072
1261.00,0.072
1262.00,0.072
1263.00,0.071
1264.00,0.072
1265.00,0.072
1266.00,0.072
1267.00,0.073
1268.00,0.072
1269.00,0.072
1270.00,0.072
1271.00,0.072
1272.00,0.072
1273.00,0.072
1274.00,0.073
1275.00,0.073
1276.00,0.073
1277.00,0.073
1278.00,0.072
1279.00,0.071
1280.00,0.071
1281.00,0.072
1282.00,0.072
1283.00,0.072
1284.00,0.072
1285.00,0.072
1286.00,0.073
1287.00,0.073
1288.00,0.073
1289.00,0.072
1290.00,0.071
1291.00,0.071
1292.00,0.071
1293.00,0.071
1294.00,0.072
1295.00,0.072
1296.00,0.073
1297.00,0.073
1298.00,0.073
1299.00,0.073
1300.00,0.072
1301.00,0.072
1302.00,0.072
1303.00,0.072
1304.00,0.071
1305.00,0.071
1306.00,0.072
1307.00,0.073
1308.00,0.074
1309.00,0.075
1310.00,0.075
1311.00,0.074
1312.00,0.074
1313.00,0.074
1314.00,0.074
1315.00,0.075
1316.00,0.075
1317.00,0.075
1318.00,0.076
1319.00,0.077
1320.00,0.077
1321.00,0.077
1322.00,0.077
1323.00,0.077
1324.00,0.076
1325.00,0.077
1326.00,0.077
1327.00,0.078
1328.00,0.077
1329.00,0.077
1330.00,0.078
1331.00,0.078
1332.00,0.078
1333.00,0.078
1334.00,0.078
1335.00,0.077
1336.00,0.078
1337.00,0.078
1338.00,0.079
1339.00,0.080
1340.00,0.081
1341.00,0.081
1342.00,0.080
1343.00,0.081
1344.00,0.081
1345.00,0.081
1346.00,0.081
1347.00,0.081
1348.00,0.082
1349.00,0.082
1350.00,0.081
1351.00,0.081
1352.00,0.082
1353.00,0.083
1354.00,0.084
1355.00,0.084
1356.00,0.084
1357.00,0.084
1358.00,0.085
1359.00,0.084
1360.00,0.084
1361.00,0.084
1362.00,0.085
1363.00,0.086
1364.00,0.086
1365.00,0.086
1366.00,0.086
1367.00,0.086
1368.00,0.087
1369.00,0.087
1370.00,0.088
1371.00,0.088
1372.00,0.088
1373.00,0.088
1374.00,0.089
1375.00,0.090
1376.00,0.090
1377.00,0.092
1378.00,0.091
1379.00,0.090
1380.00,0.093
1381.00,0.095
1382.00,0.093
1383.00,0.094
1384.00,0.097
1385.00,0.100
1386.00,0.102
1387.00,0.102
1388.00,0.100
1389.00,0.102
1390.00,0.105
1391.00,0.107
1392.00,0.108
1393.00,0.108
1394.00,0.110
1395.00,0.113
1396.00,0.114
1397.00,0.116
1398.00,0.117
1399.00,0.119
1400.00,0.123
1401.00,0.125
1402.00,0.128
1403.00,0.130
1404.00,0.133
1405.00,0.136
1406.00,0.137
1407.00,0.137
1408.00,0.137
1409.00,0.139
1410.00,0.142
1411.00,0.143
1412.00,0.144
1413.00,0.144
1414.00,0.146
1415.00,0.148
1416.00,0.150
1417.00,0.150
1418.00,0.150
1419.00,0.152
1420.00,0.152
1421.00,0.153
1422.00,0.154
1423.00,0.155
1424.00,0.157
1425.00,0.158
1426.00,0.160
1427.00,0.159
1428.00,0.160
1429.00,0.162
1430.00,0.163
1431.00,0.163
1432.00,0.164
1433.00,0.165
1434.00,0.165
1435.00,0.166
1436.00,0.167
1437.00,0.167
1438.00,0.168
1439.00,0.167
1440.00,0.168
1441.00,0.169
1442.00,0.170
1443.00,0.171
1444.00,0.172
1445.00,0.172
1446.00,0.170
1447.00,0.171
1448.00,0.171
1449.00,0.171
1450.00,0.172
1451.00,0.172
1452.00,0.173
1453.00,0.173
1454.00,0.172
1455.00,0.172
1456.00,0.171
1457.00,0.172
1458.00,0.172
1459.00,0.173
1460.00,0.174
1461.00,0.173
1462.00,0.173
1463.00,0.173
1464.00,0.172
1465.00,0.171
1466.00,0.171
1467.00,0.171
1468.00,0.171
1469.00,0.171
1470.00,0.171
1471.00,0.171
1472.00,0.170
1473.00,0.170
1474.00,0.169
1475.00,0.168
1476.00,0.167
1477.00,0.166
1478.00,0.165
1479.00,0.165
1480.00,0.165
1481.00,0.165
1482.00,0.165
1483.00,0.164
1484.00,0.163
1485.00,0.162
1486.00,0.162
1487.00,0.161
1488.00,0.161
1489.00,0.161
1490.00,0.160
1491.00,0.160
1492.00,0.159
1493.00,0.158
1494.00,0.157
1495.00,0.157
1496.00,0.156
1497.00,0.155
1498.00,0.156
1499.00,0.156
1500.00,0.155
1501.00,0.155
1502.00,0.154
1503.00,0.153
1504.00,0.152
1505.00,0.152
1506.00,0.151
1507.00,0.151
1508.00,0.151
1509.00,0.151
1510.00,0.150
1511.00,0.149
1512.00,0.149
1513.00,0.148
1514.00,0.148
1515.00,0.147
1516.00,0.147
1517.00,0.147
1518.00,0.147
1519.00,0.147
1520.00,0.146
1521.00,0.145
1522.00,0.145
1523.00,0.145
1524.00,0.144
1525.00,0.143
1526.00,0.143
1527.00,0.144
1528.00,0.143
1529.00,0.143
1530.00,0.143
1531.00,0.143
1532.00,0.142
1533.00,0.142
1534.00,0.141
1535.00,0.141
1536.00,0.142
1537.00,0.141
1538.00,0.141
1539.00,0.141
1540.00,0.141
1541.00,0.140
1542.00,0.140
1543.00,0.140
1544.00,0.140
1545.00,0.140
1546.00,0.140
1547.00,0.140
1548.00,0.141
1549.00,0.140
1550.00,0.140
1551.00,0.140
1552.00,0.140
1553.00,0.139
1554.00,0.139
1555.00,0.140
1556.00,0.140
1557.00,0.139
1558.00,0.139
1559.00,0.139
1560.00,0.140
1561.00,0.139
1562.00,0.139
1563.00,0.138
1564.00,0.139
1565.00,0.139
1566.00,0.139
1567.00,0.138
1568.00,0.138
1569.00,0.139
1570.00,0.138
1571.00,0.138
1572.00,0.139
1573.00,0.139
1574.00,0.139
1575.00,0.139
1576.00,0.140
1577.00,0.140
1578.00,0.141
1579.00,0.140
1580.00,0.140
