20230424_baseline_2 Sap_UP H2O_to 3200 nm-3 - RawData
Wavelength nm.,Abs.
200.00,0.331
201.00,0.335
202.00,0.336
203.00,0.339
204.00,0.347
205.00,0.353
206.00,0.355
207.00,0.356
208.00,0.345
209.00,0.332
210.00,0.316
211.00,0.296
212.00,0.277
213.00,0.250
214.00,0.223
215.00,0.200
216.00,0.175
217.00,0.153
218.00,0.132
219.00,0.110
220.00,0.091
221.00,0.077
222.00,0.067
223.00,0.056
224.00,0.049
225.00,0.045
226.00,0.041
227.00,0.038
228.00,0.034
229.00,0.031
230.00,0.030
231.00,0.030
232.00,0.029
233.00,0.027
234.00,0.027
235.00,0.026
236.00,0.025
237.00,0.025
238.00,0.024
239.00,0.024
240.00,0.024
241.00,0.022
242.00,0.021
243.00,0.022
244.00,0.022
245.00,0.022
246.00,0.022
247.00,0.022
248.00,0.021
249.00,0.021
250.00,0.022
251.00,0.024
252.00,0.023
253.00,0.022
254.00,0.023
255.00,0.022
256.00,0.022
257.00,0.021
258.00,0.021
259.00,0.020
260.00,0.020
261.00,0.021
262.00,0.021
263.00,0.020
264.00,0.019
265.00,0.019
266.00,0.020
267.00,0.020
268.00,0.020
269.00,0.019
270.00,0.018
271.00,0.018
272.00,0.019
273.00,0.018
274.00,0.018
275.00,0.019
276.00,0.018
277.00,0.016
278.00,0.017
279.00,0.018
280.00,0.018
281.00,0.018
282.00,0.018
283.00,0.018
284.00,0.017
285.00,0.018
286.00,0.018
287.00,0.017
288.00,0.016
289.00,0.017
290.00,0.016
291.00,0.017
292.00,0.017
293.00,0.016
294.00,0.016
295.00,0.016
296.00,0.017
297.00,0.017
298.00,0.016
299.00,0.016
300.00,0.016
301.00,0.016
302.00,0.016
303.00,0.016
304.00,0.016
305.00,0.017
306.00,0.017
307.00,0.015
308.00,0.016
309.00,0.017
310.00,0.017
311.00,0.018
312.00,0.017
313.00,0.017
314.00,0.017
315.00,0.016
316.00,0.015
317.00,0.016
318.00,0.017
319.00,0.016
320.00,0.015
321.00,0.015
322.00,0.015
323.00,0.015
324.00,0.016
325.00,0.016
326.00,0.014
327.00,0.015
328.00,0.016
329.00,0.016
330.00,0.016
331.00,0.016
332.00,0.016
333.00,0.015
334.00,0.015
335.00,0.015
336.00,0.015
337.00,0.015
338.00,0.015
339.00,0.015
340.00,0.015
341.00,0.015
342.00,0.016
343.00,0.017
344.00,0.016
345.00,0.016
346.00,0.015
347.00,0.015
348.00,0.015
349.00,0.015
350.00,0.015
351.00,0.014
352.00,0.014
353.00,0.013
354.00,0.013
355.00,0.013
356.00,0.013
357.00,0.014
358.00,0.019
359.00,0.021
360.00,0.016
361.00,0.016
362.00,0.018
363.00,0.020
364.00,0.023
365.00,0.018
366.00,0.012
367.00,0.011
368.00,0.015
369.00,0.017
370.00,0.018
371.00,0.019
372.00,0.020
373.00,0.020
374.00,0.016
375.00,0.019
376.00,0.023
377.00,0.019
378.00,0.012
379.00,0.009
380.00,0.013
381.00,0.017
382.00,0.017
383.00,0.019
384.00,0.019
385.00,0.016
386.00,0.016
387.00,0.019
388.00,0.019
389.00,0.019
390.00,0.019
391.00,0.019
392.00,0.019
393.00,0.019
394.00,0.018
395.00,0.019
396.00,0.018
397.00,0.017
398.00,0.018
399.00,0.018
400.00,0.018
401.00,0.018
402.00,0.017
403.00,0.017
404.00,0.018
405.00,0.019
406.00,0.019
407.00,0.018
408.00,0.018
409.00,0.019
410.00,0.019
411.00,0.018
412.00,0.016
413.00,0.017
414.00,0.019
415.00,0.018
416.00,0.017
417.00,0.017
418.00,0.018
419.00,0.017
420.00,0.016
421.00,0.016
422.00,0.017
423.00,0.017
424.00,0.017
425.00,0.017
426.00,0.018
427.00,0.020
428.00,0.019
429.00,0.018
430.00,0.016
431.00,0.018
432.00,0.020
433.00,0.020
434.00,0.020
435.00,0.019
436.00,0.019
437.00,0.019
438.00,0.018
439.00,0.019
440.00,0.019
441.00,0.018
442.00,0.018
443.00,0.017
444.00,0.018
445.00,0.017
446.00,0.018
447.00,0.018
448.00,0.019
449.00,0.019
450.00,0.019
451.00,0.018
452.00,0.018
453.00,0.019
454.00,0.019
455.00,0.018
456.00,0.019
457.00,0.019
458.00,0.018
459.00,0.018
460.00,0.018
461.00,0.019
462.00,0.018
463.00,0.017
464.00,0.017
465.00,0.018
466.00,0.018
467.00,0.018
468.00,0.018
469.00,0.018
470.00,0.018
471.00,0.017
472.00,0.018
473.00,0.018
474.00,0.018
475.00,0.017
476.00,0.018
477.00,0.018
478.00,0.017
479.00,0.017
480.00,0.017
481.00,0.016
482.00,0.016
483.00,0.016
484.00,0.016
485.00,0.017
486.00,0.018
487.00,0.017
488.00,0.017
489.00,0.017
490.00,0.016
491.00,0.017
492.00,0.017
493.00,0.017
494.00,0.016
495.00,0.016
496.00,0.017
497.00,0.016
498.00,0.016
499.00,0.016
500.00,0.016
501.00,0.016
502.00,0.016
503.00,0.016
504.00,0.016
505.00,0.016
506.00,0.016
507.00,0.016
508.00,0.016
509.00,0.016
510.00,0.016
511.00,0.016
512.00,0.016
513.00,0.016
514.00,0.016
515.00,0.016
516.00,0.015
517.00,0.016
518.00,0.016
519.00,0.016
520.00,0.016
521.00,0.015
522.00,0.015
523.00,0.015
524.00,0.016
525.00,0.016
526.00,0.016
527.00,0.016
528.00,0.016
529.00,0.016
530.00,0.016
531.00,0.016
532.00,0.016
533.00,0.016
534.00,0.015
535.00,0.015
536.00,0.015
537.00,0.015
538.00,0.015
539.00,0.015
540.00,0.015
541.00,0.015
542.00,0.015
543.00,0.015
544.00,0.015
545.00,0.015
546.00,0.015
547.00,0.016
548.00,0.015
549.00,0.015
550.00,0.014
551.00,0.015
552.00,0.015
553.00,0.015
554.00,0.015
555.00,0.014
556.00,0.014
557.00,0.014
558.00,0.014
559.00,0.014
560.00,0.014
561.00,0.014
562.00,0.015
563.00,0.014
564.00,0.014
565.00,0.015
566.00,0.014
567.00,0.014
568.00,0.014
569.00,0.015
570.00,0.015
571.00,0.014
572.00,0.014
573.00,0.015
574.00,0.015
575.00,0.015
576.00,0.014
577.00,0.015
578.00,0.015
579.00,0.015
580.00,0.015
581.00,0.015
582.00,0.015
583.00,0.015
584.00,0.015
585.00,0.015
586.00,0.015
587.00,0.015
588.00,0.015
589.00,0.014
590.00,0.015
591.00,0.014
592.00,0.014
593.00,0.014
594.00,0.014
595.00,0.014
596.00,0.014
597.00,0.014
598.00,0.014
599.00,0.014
600.00,0.014
601.00,0.014
602.00,0.014
603.00,0.014
604.00,0.014
605.00,0.014
606.00,0.014
607.00,0.014
608.00,0.014
609.00,0.014
610.00,0.015
611.00,0.014
612.00,0.014
613.00,0.014
614.00,0.015
615.00,0.014
616.00,0.015
617.00,0.015
618.00,0.015
619.00,0.015
620.00,0.015
621.00,0.015
622.00,0.014
623.00,0.015
624.00,0.015
625.00,0.015
626.00,0.015
627.00,0.014
628.00,0.014
629.00,0.014
630.00,0.014
631.00,0.014
632.00,0.014
633.00,0.014
634.00,0.014
635.00,0.014
636.00,0.014
637.00,0.014
638.00,0.014
639.00,0.015
640.00,0.015
641.00,0.015
642.00,0.015
643.00,0.015
644.00,0.015
645.00,0.015
646.00,0.015
647.00,0.016
648.00,0.016
649.00,0.015
650.00,0.016
651.00,0.015
652.00,0.015
653.00,0.015
654.00,0.014
655.00,0.015
656.00,0.015
657.00,0.016
658.00,0.016
659.00,0.016
660.00,0.016
661.00,0.016
662.00,0.016
663.00,0.016
664.00,0.016
665.00,0.015
666.00,0.016
667.00,0.016
668.00,0.015
669.00,0.015
670.00,0.015
671.00,0.015
672.00,0.015
673.00,0.015
674.00,0.014
675.00,0.015
676.00,0.016
677.00,0.015
678.00,0.015
679.00,0.015
680.00,0.015
681.00,0.015
682.00,0.016
683.00,0.016
684.00,0.016
685.00,0.016
686.00,0.015
687.00,0.015
688.00,0.016
689.00,0.014
690.00,0.014
691.00,0.014
692.00,0.014
693.00,0.014
694.00,0.014
695.00,0.014
696.00,0.015
697.00,0.015
698.00,0.015
699.00,0.015
700.00,0.015
701.00,0.015
702.00,0.015
703.00,0.016
704.00,0.016
705.00,0.016
706.00,0.016
707.00,0.015
708.00,0.015
709.00,0.015
710.00,0.015
711.00,0.015
712.00,0.015
713.00,0.015
714.00,0.014
715.00,0.014
716.00,0.015
717.00,0.015
718.00,0.015
719.00,0.014
720.00,0.014
721.00,0.014
722.00,0.014
723.00,0.015
724.00,0.015
725.00,0.014
726.00,0.015
727.00,0.015
728.00,0.015
729.00,0.015
730.00,0.015
731.00,0.015
732.00,0.014
733.00,0.015
734.00,0.015
735.00,0.015
736.00,0.014
737.00,0.014
738.00,0.014
739.00,0.014
740.00,0.015
741.00,0.016
742.00,0.015
743.00,0.015
744.00,0.015
745.00,0.015
746.00,0.015
747.00,0.015
748.00,0.015
749.00,0.014
750.00,0.015
751.00,0.015
752.00,0.015
753.00,0.015
754.00,0.015
755.00,0.015
756.00,0.015
757.00,0.015
758.00,0.015
759.00,0.015
760.00,0.015
761.00,0.015
762.00,0.015
763.00,0.015
764.00,0.015
765.00,0.016
766.00,0.016
767.00,0.015
768.00,0.014
769.00,0.014
770.00,0.015
771.00,0.014
772.00,0.015
773.00,0.016
774.00,0.015
775.00,0.015
776.00,0.014
777.00,0.015
778.00,0.014
779.00,0.013
780.00,0.014
781.00,0.014
782.00,0.016
783.00,0.016
784.00,0.016
785.00,0.015
786.00,0.015
787.00,0.015
788.00,0.013
789.00,0.013
790.00,0.014
791.00,0.014
792.00,0.014
793.00,0.014
794.00,0.013
795.00,0.013
796.00,0.013
797.00,0.014
798.00,0.015
799.00,0.015
800.00,0.015
801.00,0.016
802.00,0.015
803.00,0.014
804.00,0.014
805.00,0.015
806.00,0.016
807.00,0.015
808.00,0.012
809.00,0.013
810.00,0.016
811.00,0.016
812.00,0.014
813.00,0.013
814.00,0.015
815.00,0.015
816.00,0.014
817.00,0.013
818.00,0.014
819.00,0.014
820.00,0.014
821.00,0.015
822.00,0.014
823.00,0.013
824.00,0.012
825.00,0.013
826.00,0.014
827.00,0.015
828.00,0.014
829.00,0.014
830.00,0.013
831.00,0.013
832.00,0.013
833.00,0.014
834.00,0.014
835.00,0.014
836.00,0.015
837.00,0.015
838.00,0.013
839.00,0.013
840.00,0.013
841.00,0.014
842.00,0.015
843.00,0.015
844.00,0.015
845.00,0.014
846.00,0.015
847.00,0.016
848.00,0.014
849.00,0.013
850.00,0.013
851.00,0.014
852.00,0.015
853.00,0.014
854.00,0.013
855.00,0.015
856.00,0.017
857.00,0.016
858.00,0.014
859.00,0.013
860.00,0.014
861.00,0.015
862.00,0.016
863.00,0.015
864.00,0.016
865.00,0.016
866.00,0.017
867.00,0.017
868.00,0.015
869.00,0.014
870.00,0.015
871.00,0.014
872.00,0.013
873.00,0.014
874.00,0.013
875.00,0.011
876.00,0.013
877.00,0.016
878.00,0.018
879.00,0.018
880.00,0.031
881.00,0.044
882.00,0.044
883.00,0.044
884.00,0.043
885.00,0.042
886.00,0.043
887.00,0.043
888.00,0.043
889.00,0.042
890.00,0.040
891.00,0.041
892.00,0.041
893.00,0.040
894.00,0.038
895.00,0.036
896.00,0.037
897.00,0.038
898.00,0.039
899.00,0.038
900.00,0.039
901.00,0.040
902.00,0.041
903.00,0.040
904.00,0.040
905.00,0.040
906.00,0.039
907.00,0.040
908.00,0.040
909.00,0.041
910.00,0.040
911.00,0.037
912.00,0.039
913.00,0.040
914.00,0.038
915.00,0.038
916.00,0.037
917.00,0.037
918.00,0.036
919.00,0.036
920.00,0.037
921.00,0.035
922.00,0.036
923.00,0.037
924.00,0.037
925.00,0.037
926.00,0.035
927.00,0.034
928.00,0.034
929.00,0.035
930.00,0.035
931.00,0.034
932.00,0.034
933.00,0.034
934.00,0.033
935.00,0.033
936.00,0.033
937.00,0.033
938.00,0.032
939.00,0.031
940.00,0.031
941.00,0.033
942.00,0.034
943.00,0.033
944.00,0.032
945.00,0.030
946.00,0.030
947.00,0.031
948.00,0.031
949.00,0.032
950.00,0.030
951.00,0.029
952.00,0.031
953.00,0.031
954.00,0.032
955.00,0.032
956.00,0.030
957.00,0.030
958.00,0.031
959.00,0.032
960.00,0.032
961.00,0.031
962.00,0.032
963.00,0.030
964.00,0.029
965.00,0.030
966.00,0.029
967.00,0.028
968.00,0.028
969.00,0.028
970.00,0.028
971.00,0.028
972.00,0.028
973.00,0.028
974.00,0.028
975.00,0.027
976.00,0.028
977.00,0.029
978.00,0.029
979.00,0.028
980.00,0.026
981.00,0.027
982.00,0.028
983.00,0.029
984.00,0.029
985.00,0.028
986.00,0.028
987.00,0.028
988.00,0.028
989.00,0.028
990.00,0.029
991.00,0.028
992.00,0.027
993.00,0.027
994.00,0.026
995.00,0.027
996.00,0.029
997.00,0.029
998.00,0.029
999.00,0.027
1000.00,0.027
1001.00,0.026
1002.00,0.026
1003.00,0.027
1004.00,0.028
1005.00,0.028
1006.00,0.028
1007.00,0.027
1008.00,0.027
1009.00,0.027
1010.00,0.027
1011.00,0.027
1012.00,0.028
1013.00,0.027
1014.00,0.027
1015.00,0.028
1016.00,0.028
1017.00,0.029
1018.00,0.028
1019.00,0.028
1020.00,0.028
1021.00,0.027
1022.00,0.027
1023.00,0.026
1024.00,0.027
1025.00,0.028
1026.00,0.029
1027.00,0.028
1028.00,0.026
1029.00,0.027
1030.00,0.028
1031.00,0.027
1032.00,0.027
1033.00,0.027
1034.00,0.027
1035.00,0.026
1036.00,0.026
1037.00,0.026
1038.00,0.026
1039.00,0.026
1040.00,0.025
1041.00,0.025
1042.00,0.025
1043.00,0.026
1044.00,0.026
1045.00,0.026
1046.00,0.027
1047.00,0.027
1048.00,0.026
1049.00,0.025
1050.00,0.025
1051.00,0.025
1052.00,0.024
1053.00,0.025
1054.00,0.026
1055.00,0.025
1056.00,0.025
1057.00,0.025
1058.00,0.025
1059.00,0.025
1060.00,0.025
1061.00,0.025
1062.00,0.024
1063.00,0.024
1064.00,0.025
1065.00,0.025
1066.00,0.025
1067.00,0.025
1068.00,0.025
1069.00,0.025
1070.00,0.024
1071.00,0.024
1072.00,0.024
1073.00,0.025
1074.00,0.026
1075.00,0.027
1076.00,0.027
1077.00,0.026
1078.00,0.026
1079.00,0.026
1080.00,0.026
1081.00,0.025
1082.00,0.025
1083.00,0.026
1084.00,0.026
1085.00,0.026
1086.00,0.026
1087.00,0.026
1088.00,0.026
1089.00,0.026
1090.00,0.026
1091.00,0.026
1092.00,0.025
1093.00,0.025
1094.00,0.025
1095.00,0.025
1096.00,0.025
1097.00,0.026
1098.00,0.026
1099.00,0.025
1100.00,0.025
1101.00,0.025
1102.00,0.025
1103.00,0.025
1104.00,0.026
1105.00,0.026
1106.00,0.026
1107.00,0.026
1108.00,0.025
1109.00,0.024
1110.00,0.023
1111.00,0.023
1112.00,0.025
1113.00,0.026
1114.00,0.026
1115.00,0.026
1116.00,0.025
1117.00,0.025
1118.00,0.024
1119.00,0.023
1120.00,0.025
1121.00,0.026
1122.00,0.026
1123.00,0.026
1124.00,0.025
1125.00,0.024
1126.00,0.024
1127.00,0.024
1128.00,0.024
1129.00,0.024
1130.00,0.023
1131.00,0.025
1132.00,0.025
1133.00,0.024
1134.00,0.025
1135.00,0.024
1136.00,0.025
1137.00,0.025
1138.00,0.026
1139.00,0.026
1140.00,0.026
1141.00,0.026
1142.00,0.026
1143.00,0.025
1144.00,0.025
1145.00,0.026
1146.00,0.026
1147.00,0.026
1148.00,0.027
1149.00,0.027
1150.00,0.027
1151.00,0.027
1152.00,0.027
1153.00,0.028
1154.00,0.028
1155.00,0.028
1156.00,0.028
1157.00,0.027
1158.00,0.026
1159.00,0.026
1160.00,0.026
1161.00,0.027
1162.00,0.028
1163.00,0.028
1164.00,0.028
1165.00,0.028
1166.00,0.028
1167.00,0.028
1168.00,0.027
1169.00,0.026
1170.00,0.027
1171.00,0.027
1172.00,0.028
1173.00,0.029
1174.00,0.029
1175.00,0.027
1176.00,0.026
1177.00,0.026
1178.00,0.027
1179.00,0.028
1180.00,0.028
1181.00,0.028
1182.00,0.029
1183.00,0.029
1184.00,0.029
1185.00,0.029
1186.00,0.028
1187.00,0.027
1188.00,0.027
1189.00,0.027
1190.00,0.027
1191.00,0.028
1192.00,0.028
1193.00,0.029
1194.00,0.028
1195.00,0.026
1196.00,0.026
1197.00,0.025
1198.00,0.025
1199.00,0.027
1200.00,0.027
1201.00,0.027
1202.00,0.026
1203.00,0.026
1204.00,0.027
1205.00,0.026
1206.00,0.026
1207.00,0.025
1208.00,0.025
1209.00,0.027
1210.00,0.027
1211.00,0.028
1212.00,0.027
1213.00,0.027
1214.00,0.025
1215.00,0.025
1216.00,0.025
1217.00,0.025
1218.00,0.026
1219.00,0.026
1220.00,0.027
1221.00,0.028
1222.00,0.027
1223.00,0.026
1224.00,0.026
1225.00,0.026
1226.00,0.026
1227.00,0.026
1228.00,0.028
1229.00,0.029
1230.00,0.029
1231.00,0.029
1232.00,0.028
1233.00,0.027
1234.00,0.026
1235.00,0.026
1236.00,0.026
1237.00,0.026
1238.00,0.027
1239.00,0.028
1240.00,0.028
1241.00,0.029
1242.00,0.029
1243.00,0.028
1244.00,0.028
1245.00,0.027
1246.00,0.027
1247.00,0.027
1248.00,0.028
1249.00,0.028
1250.00,0.029
1251.00,0.028
1252.00,0.028
1253.00,0.028
1254.00,0.027
1255.00,0.026
1256.00,0.026
1257.00,0.026
1258.00,0.027
1259.00,0.027
1260.00,0.028
1261.00,0.028
1262.00,0.028
1263.00,0.027
1264.00,0.026
1265.00,0.025
1266.00,0.025
1267.00,0.025
1268.00,0.027
1269.00,0.028
1270.00,0.028
1271.00,0.029
1272.00,0.028
1273.00,0.028
1274.00,0.027
1275.00,0.026
1276.00,0.025
1277.00,0.025
1278.00,0.025
1279.00,0.026
1280.00,0.027
1281.00,0.028
1282.00,0.028
1283.00,0.028
1284.00,0.027
1285.00,0.026
1286.00,0.025
1287.00,0.025
1288.00,0.025
1289.00,0.025
1290.00,0.025
1291.00,0.026
1292.00,0.027
1293.00,0.026
1294.00,0.025
1295.00,0.025
1296.00,0.025
1297.00,0.025
1298.00,0.025
1299.00,0.026
1300.00,0.025
1301.00,0.024
1302.00,0.026
1303.00,0.027
1304.00,0.027
1305.00,0.027
1306.00,0.027
1307.00,0.027
1308.00,0.026
1309.00,0.026
1310.00,0.026
1311.00,0.026
1312.00,0.026
1313.00,0.027
1314.00,0.028
1315.00,0.029
1316.00,0.029
1317.00,0.029
1318.00,0.028
1319.00,0.028
1320.00,0.028
1321.00,0.028
1322.00,0.028
1323.00,0.028
1324.00,0.029
1325.00,0.030
1326.00,0.031
1327.00,0.031
1328.00,0.030
1329.00,0.029
1330.00,0.029
1331.00,0.029
1332.00,0.028
1333.00,0.029
1334.00,0.029
1335.00,0.030
1336.00,0.031
1337.00,0.030
1338.00,0.031
1339.00,0.031
1340.00,0.031
1341.00,0.031
1342.00,0.031
1343.00,0.031
1344.00,0.030
1345.00,0.031
1346.00,0.032
1347.00,0.033
1348.00,0.032
1349.00,0.031
1350.00,0.032
1351.00,0.032
1352.00,0.034
1353.00,0.033
1354.00,0.032
1355.00,0.032
1356.00,0.032
1357.00,0.033
1358.00,0.031
1359.00,0.032
1360.00,0.035
1361.00,0.036
1362.00,0.035
1363.00,0.032
1364.00,0.031
1365.00,0.032
1366.00,0.033
1367.00,0.035
1368.00,0.034
1369.00,0.034
1370.00,0.033
1371.00,0.034
1372.00,0.036
1373.00,0.036
1374.00,0.036
1375.00,0.037
1376.00,0.036
1377.00,0.035
1378.00,0.035
1379.00,0.036
1380.00,0.035
1381.00,0.038
1382.00,0.045
1383.00,0.045
1384.00,0.042
1385.00,0.042
1386.00,0.044
1387.00,0.047
1388.00,0.048
1389.00,0.048
1390.00,0.049
1391.00,0.052
1392.00,0.054
1393.00,0.054
1394.00,0.055
1395.00,0.056
1396.00,0.058
1397.00,0.060
1398.00,0.062
1399.00,0.065
1400.00,0.066
1401.00,0.067
1402.00,0.069
1403.00,0.071
1404.00,0.071
1405.00,0.071
1406.00,0.075
1407.00,0.077
1408.00,0.078
1409.00,0.078
1410.00,0.080
1411.00,0.084
1412.00,0.084
1413.00,0.085
1414.00,0.085
1415.00,0.085
1416.00,0.086
1417.00,0.087
1418.00,0.088
1419.00,0.088
1420.00,0.090
1421.00,0.090
1422.00,0.091
1423.00,0.092
1424.00,0.094
1425.00,0.096
1426.00,0.096
1427.00,0.096
1428.00,0.096
1429.00,0.096
1430.00,0.096
1431.00,0.097
1432.00,0.098
1433.00,0.099
1434.00,0.099
1435.00,0.099
1436.00,0.099
1437.00,0.100
1438.00,0.100
1439.00,0.101
1440.00,0.102
1441.00,0.102
1442.00,0.103
1443.00,0.102
1444.00,0.102
1445.00,0.102
1446.00,0.102
1447.00,0.103
1448.00,0.102
1449.00,0.103
1450.00,0.104
1451.00,0.104
1452.00,0.104
1453.00,0.103
1454.00,0.103
1455.00,0.103
1456.00,0.103
1457.00,0.102
1458.00,0.102
1459.00,0.103
1460.00,0.102
1461.00,0.102
1462.00,0.102
1463.00,0.102
1464.00,0.101
1465.00,0.100
1466.00,0.101
1467.00,0.100
1468.00,0.100
1469.00,0.100
1470.00,0.099
1471.00,0.098
1472.00,0.097
1473.00,0.096
1474.00,0.095
1475.00,0.095
1476.00,0.094
1477.00,0.093
1478.00,0.092
1479.00,0.092
1480.00,0.093
1481.00,0.092
1482.00,0.091
1483.00,0.090
1484.00,0.089
1485.00,0.087
1486.00,0.087
1487.00,0.086
1488.00,0.085
1489.00,0.085
1490.00,0.085
1491.00,0.084
1492.00,0.084
1493.00,0.083
1494.00,0.082
1495.00,0.081
1496.00,0.080
1497.00,0.079
1498.00,0.078
1499.00,0.078
1500.00,0.077
1501.00,0.076
1502.00,0.075
1503.00,0.075
1504.00,0.074
1505.00,0.073
1506.00,0.072
1507.00,0.071
1508.00,0.072
1509.00,0.072
1510.00,0.071
1511.00,0.071
1512.00,0.070
1513.00,0.068
1514.00,0.067
1515.00,0.067
1516.00,0.066
1517.00,0.065
1518.00,0.065
1519.00,0.065
1520.00,0.064
1521.00,0.064
1522.00,0.064
1523.00,0.063
1524.00,0.062
1525.00,0.062
1526.00,0.061
1527.00,0.061
1528.00,0.060
1529.00,0.060
1530.00,0.060
1531.00,0.059
1532.00,0.058
1533.00,0.057
1534.00,0.056
1535.00,0.056
1536.00,0.056
1537.00,0.057
1538.00,0.056
1539.00,0.056
1540.00,0.056
1541.00,0.056
1542.00,0.055
1543.00,0.054
1544.00,0.053
1545.00,0.052
1546.00,0.052
1547.00,0.052
1548.00,0.052
1549.00,0.051
1550.00,0.051
1551.00,0.051
1552.00,0.051
1553.00,0.051
1554.00,0.051
1555.00,0.051
1556.00,0.051
1557.00,0.050
1558.00,0.050
1559.00,0.049
1560.00,0.049
1561.00,0.048
1562.00,0.047
1563.00,0.047
1564.00,0.047
1565.00,0.047
1566.00,0.047
1567.00,0.047
1568.00,0.047
1569.00,0.047
1570.00,0.047
1571.00,0.047
1572.00,0.046
1573.00,0.046
1574.00,0.045
1575.00,0.045
1576.00,0.046
1577.00,0.045
1578.00,0.045
1579.00,0.045
1580.00,0.045
